# trecs_fqwide.dat
# Transmission curve for T-ReCS Q-wide (20.8 micron) filter
# Columns are (1) wavelength in nm, (2) transmission.
#
# No blocker required
# Measurement temperature = 25 K
#
# Author: Tom Hayward, based on data from C. Packham, UF
# Created: 2001 Sep 4
#
# Updated: 2006oct02 with filter scan
#
# Effective wavelength
20789
#
# lambda    T  

# 17551    0.000
# 17601    0.320
# 17651    0.640
# 25327    0.640
# 25377    0.320
# 25427    0.000
14771.0500    0.00002260
14792.9000    0.00008750
14814.8100    0.00014640
14836.7900    0.00020690
14858.8400    0.00027870
14880.9500    0.00035950
14903.1300    0.00044230
14925.3700    0.00053000
14947.6800    0.00063300
14970.0600    0.00075080
14992.5000    0.00087210
15015.0100    0.00098680
15037.5900    0.00110270
15060.2400    0.00123290
15082.9600    0.00138350
15105.7400    0.00155450
15128.5900    0.00174620
15151.5200    0.00195670
15174.5100    0.00218180
15197.5700    0.00241280
15220.7000    0.00263930
15243.9000    0.00285200
15267.1800    0.00303740
15290.5200    0.00318690
15313.9400    0.00330160
15337.4200    0.00340320
15360.9800    0.00351930
15384.6100    0.00367240
15408.3200    0.00385520
15432.1000    0.00405120
15455.9500    0.00423640
15479.8800    0.00441430
15503.8800    0.00459740
15527.9500    0.00481320
15552.1000    0.00507470
15576.3200    0.00540540
15600.6200    0.00582150
15625.0000    0.00634620
15649.4500    0.00697300
15673.9800    0.00768920
15698.5900    0.00849030
15723.2700    0.00939460
15748.0300    0.01045350
15772.8700    0.01168580
15797.7900    0.01314640
15822.7800    0.01483510
15847.8600    0.01687650
15873.0200    0.01930740
15898.2500    0.02229860
15923.5700    0.02590920
15948.9600    0.03042790
15974.4400    0.03600670
16000.0000    0.04295130
16025.6400    0.05145600
16051.3590    0.06188800
16077.1690    0.07454700
16103.0600    0.08986500
16129.0300    0.10845400
16155.0900    0.13110140
16181.2310    0.15836759
16207.4510    0.19000459
16233.7700    0.22478269
16260.1600    0.26084182
16286.6500    0.29637599
16313.2100    0.32987949
16339.8700    0.35998440
16366.6100    0.38540909
16393.4400    0.40531439
16420.3610    0.41965669
16447.3710    0.42910308
16474.4610    0.43473837
16501.6500    0.43770599
16528.9190    0.43911150
16556.2900    0.43982890
16583.7500    0.44063139
16611.3000    0.44197029
16638.9410    0.44419169
16666.6700    0.44724509
16694.4900    0.45111820
16722.4100    0.45554420
16750.4200    0.46045139
16778.5210    0.46563357
16806.7210    0.47108957
16835.0200    0.47670391
16863.4110    0.48238349
16891.8900    0.48788428
16920.4690    0.49296451
16949.1500    0.49748829
16977.9300    0.50146836
17006.8000    0.50505376
17035.7700    0.50836414
17064.8500    0.51147938
17094.0210    0.51442909
17123.2890    0.51732039
17152.6600    0.52032036
17182.1310    0.52361178
17211.7000    0.52729821
17241.3810    0.53140950
17271.1600    0.53596997
17301.0410    0.54109210
17331.0200    0.54692596
17361.1110    0.55347657
17391.3000    0.56051540
17421.6000    0.56777805
17452.0090    0.57521510
17482.5190    0.58299041
17513.1300    0.59123021
17543.8590    0.59988397
17574.6900    0.60872936
17605.6310    0.61750787
17636.6810    0.62597013
17667.8390    0.63396859
17699.1200    0.64140677
17730.4990    0.64825821
17761.9900    0.65446502
17793.5910    0.65999222
17825.3100    0.66478181
17857.1400    0.66883230
17889.0900    0.67213988
17921.1500    0.67471784
17953.3200    0.67656368
17985.6090    0.67773098
18018.0210    0.67832416
18050.5410    0.67846107
18083.1790    0.67822957
18115.9400    0.67767614
18148.8210    0.67684430
18181.8200    0.67577201
18214.9390    0.67454648
18248.1710    0.67325187
18281.5400    0.67195183
18315.0200    0.67060947
18348.6190    0.66920894
18382.3510    0.66776937
18416.2100    0.66636544
18450.1800    0.66501355
18484.2890    0.66370404
18518.5200    0.66242814
18552.8790    0.66120529
18587.3600    0.66005439
18621.9690    0.65895796
18656.7190    0.65789509
18691.5890    0.65686697
18726.5890    0.65591758
18761.7300    0.65506721
18796.9890    0.65432876
18832.3900    0.65372819
18867.9200    0.65330404
18903.5890    0.65304106
18939.3900    0.65291291
18975.3300    0.65297246
19011.4100    0.65333557
19047.6210    0.65404838
19083.9690    0.65502739
19120.4610    0.65614128
19157.0890    0.65731877
19193.8590    0.65857112
19230.7700    0.65992928
19267.8200    0.66139716
19305.0190    0.66295028
19342.3600    0.66456097
19379.8410    0.66618043
19417.4800    0.66772246
19455.2500    0.66911340
19493.1790    0.67032433
19531.2500    0.67135835
19569.4690    0.67219305
19607.8400    0.67279929
19646.3700    0.67316335
19685.0400    0.67331785
19723.8690    0.67330116
19762.8500    0.67315114
19801.9790    0.67287368
19841.2700    0.67246670
19880.7200    0.67192030
19920.3210    0.67122704
19960.0790    0.67038560
20000.0000    0.66942048
20040.0790    0.66837567
20080.3200    0.66729969
20120.7200    0.66624260
20161.2890    0.66524220
20202.0210    0.66429573
20242.9100    0.66334373
20283.9790    0.66234440
20325.1990    0.66133857
20366.6000    0.66042954
20408.1590    0.65968007
20449.9000    0.65907216
20491.8000    0.65854138
20533.8800    0.65805340
20576.1300    0.65760452
20618.5610    0.65719146
20661.1600    0.65679097
20703.9300    0.65639663
20746.8890    0.65603232
20790.0200    0.65569729
20833.3300    0.65533280
20876.8290    0.65485877
20920.5000    0.65425009
20964.3590    0.65354890
21008.4000    0.65280288
21052.6290    0.65201402
21097.0500    0.65116704
21141.6490    0.65027928
21186.4400    0.64940977
21231.4210    0.64859319
21276.6000    0.64781022
21321.9600    0.64701718
21367.5190    0.64620489
21413.2800    0.64536619
21459.2300    0.64449668
21505.3810    0.64354873
21551.7200    0.64248228
21598.2700    0.64126283
21645.0200    0.63994497
21691.9710    0.63853723
21739.1300    0.63692552
21786.4890    0.63485408
21834.0610    0.63224387
21881.8400    0.62927526
21929.8190    0.62629342
21978.0200    0.62337208
22026.4300    0.62027192
22075.0600    0.61665231
22123.8900    0.61249608
22172.9510    0.60805798
22222.2190    0.60357666
22271.7210    0.59899276
22321.4300    0.59413171
22371.3610    0.58893132
22421.5200    0.58347678
22471.9100    0.57775038
22522.5200    0.57153249
22573.3600    0.56462860
22624.4300    0.55718416
22675.7390    0.54961246
22727.2700    0.54218507
22779.0390    0.53475589
22831.0510    0.52695489
22883.3010    0.51869529
22935.7800    0.51037621
22988.5100    0.50263709
23041.4790    0.49586368
23094.6900    0.49013227
23148.1490    0.48524570
23201.8600    0.48106220
23255.8100    0.47753361
23310.0200    0.47453329
23364.4910    0.47176960
23419.2010    0.46895191
23474.1800    0.46574107
23529.4090    0.46147060
23584.9090    0.45589468
23640.6590    0.44984630
23696.6800    0.44399810
23752.9700    0.43690798
23809.5210    0.42642969
23866.3500    0.41310358
23923.4410    0.40047240
23980.8200    0.39152721
24038.4600    0.38638639
24096.3900    0.38351768
24154.5910    0.38193271
24213.0790    0.38161367
24271.8390    0.38300249
24330.9000    0.38622952
24390.2400    0.39105749
24449.8810    0.39699149
24509.8000    0.40354419
24570.0210    0.41001678
24630.5410    0.41571072
24691.3600    0.42001718
24752.4800    0.42245287
24813.9000    0.42269018
24875.6200    0.42096418
24937.6600    0.41745380
25000.0000    0.41106200
