# F2 Net System Transmission with J Filter (BARR MAN256-1; Gemini ID J_G0802) (1=100%)
# Wavelength (nm) Transmission
#
 900.0   0.000
1138.5   0.000
1139.0   0.001
1139.5   0.001
1140.0   0.001
1140.5   0.001
1141.0   0.001
1141.5   0.001
1142.0   0.001
1142.5   0.001
1143.0   0.001
1143.5   0.001
1144.0   0.002
1144.5   0.002
1145.0   0.002
1145.5   0.003
1146.0   0.003
1146.5   0.003
1147.0   0.003
1147.5   0.004
1148.0   0.004
1148.5   0.004
1149.0   0.004
1149.5   0.004
1150.0   0.004
1150.5   0.004
1151.0   0.004
1151.5   0.004
1152.0   0.004
1152.5   0.004
1153.0   0.004
1153.5   0.004
1154.0   0.004
1154.5   0.004
1155.0   0.005
1155.5   0.005
1156.0   0.005
1156.5   0.006
1157.0   0.006
1157.5   0.007
1158.0   0.008
1158.5   0.009
1159.0   0.011
1159.5   0.012
1160.0   0.015
1160.5   0.017
1161.0   0.021
1161.5   0.025
1162.0   0.029
1162.5   0.035
1163.0   0.042
1163.5   0.050
1164.0   0.059
1164.5   0.069
1165.0   0.079
1165.5   0.089
1166.0   0.099
1166.5   0.108
1167.0   0.117
1167.5   0.125
1168.0   0.132
1168.5   0.139
1169.0   0.146
1169.5   0.154
1170.0   0.163
1170.5   0.173
1171.0   0.184
1171.5   0.198
1172.0   0.213
1172.5   0.230
1173.0   0.253
1173.5   0.276
1174.0   0.302
1174.5   0.329
1175.0   0.357
1175.5   0.385
1176.0   0.415
1176.5   0.446
1177.0   0.470
1177.5   0.492
1178.0   0.510
1178.5   0.524
1179.0   0.534
1179.5   0.541
1180.0   0.544
1180.5   0.545
1181.0   0.545
1181.5   0.545
1182.0   0.544
1182.5   0.544
1183.0   0.544
1183.5   0.545
1184.0   0.547
1184.5   0.549
1185.0   0.551
1185.5   0.554
1186.0   0.557
1186.5   0.558
1187.0   0.560
1187.5   0.562
1188.0   0.563
1188.5   0.564
1189.0   0.562
1189.5   0.559
1190.0   0.555
1190.5   0.551
1191.0   0.546
1191.5   0.541
1192.0   0.536
1192.5   0.531
1193.0   0.527
1193.5   0.524
1194.0   0.521
1194.5   0.519
1195.0   0.518
1195.5   0.517
1196.0   0.517
1196.5   0.518
1197.0   0.519
1197.5   0.520
1198.0   0.520
1198.5   0.522
1199.0   0.523
1199.5   0.528
1200.0   0.533
1200.5   0.537
1201.0   0.541
1201.5   0.546
1202.0   0.550
1202.5   0.554
1203.0   0.557
1203.5   0.557
1204.0   0.556
1204.5   0.556
1205.0   0.555
1205.5   0.555
1206.0   0.555
1206.5   0.554
1207.0   0.554
1207.5   0.554
1208.0   0.555
1208.5   0.555
1209.0   0.556
1209.5   0.557
1210.0   0.559
1210.5   0.560
1211.0   0.562
1211.5   0.564
1212.0   0.565
1212.5   0.567
1213.0   0.568
1213.5   0.569
1214.0   0.569
1214.5   0.570
1215.0   0.571
1215.5   0.573
1216.0   0.575
1216.5   0.577
1217.0   0.579
1217.5   0.580
1218.0   0.581
1218.5   0.582
1219.0   0.582
1219.5   0.581
1220.0   0.580
1220.5   0.579
1221.0   0.577
1221.5   0.576
1222.0   0.575
1222.5   0.574
1223.0   0.573
1223.5   0.575
1224.0   0.577
1224.5   0.579
1225.0   0.581
1225.5   0.583
1226.0   0.584
1226.5   0.585
1227.0   0.586
1227.5   0.587
1228.0   0.587
1228.5   0.587
1229.0   0.587
1229.5   0.589
1230.0   0.590
1230.5   0.592
1231.0   0.593
1231.5   0.595
1232.0   0.597
1232.5   0.598
1233.0   0.600
1233.5   0.601
1234.0   0.601
1234.5   0.602
1235.0   0.602
1235.5   0.602
1236.0   0.601
1236.5   0.600
1237.0   0.599
1237.5   0.598
1238.0   0.597
1238.5   0.597
1239.0   0.596
1239.5   0.596
1240.0   0.597
1240.5   0.597
1241.0   0.598
1241.5   0.599
1242.0   0.600
1242.5   0.600
1243.0   0.602
1243.5   0.601
1244.0   0.600
1244.5   0.599
1245.0   0.599
1245.5   0.600
1246.0   0.601
1246.5   0.603
1247.0   0.604
1247.5   0.606
1248.0   0.608
1248.5   0.609
1249.0   0.611
1249.5   0.611
1250.0   0.610
1250.5   0.609
1251.0   0.609
1251.5   0.607
1252.0   0.606
1252.5   0.604
1253.0   0.602
1253.5   0.601
1254.0   0.600
1254.5   0.599
1255.0   0.598
1255.5   0.598
1256.0   0.597
1256.5   0.596
1257.0   0.596
1257.5   0.595
1258.0   0.595
1258.5   0.595
1259.0   0.595
1259.5   0.595
1260.0   0.594
1260.5   0.594
1261.0   0.594
1261.5   0.594
1262.0   0.594
1262.5   0.595
1263.0   0.596
1263.5   0.597
1264.0   0.599
1264.5   0.602
1265.0   0.604
1265.5   0.606
1266.0   0.608
1266.5   0.610
1267.0   0.611
1267.5   0.613
1268.0   0.615
1268.5   0.616
1269.0   0.617
1269.5   0.619
1270.0   0.620
1270.5   0.622
1271.0   0.623
1271.5   0.624
1272.0   0.626
1272.5   0.627
1273.0   0.628
1273.5   0.628
1274.0   0.628
1274.5   0.627
1275.0   0.627
1275.5   0.625
1276.0   0.624
1276.5   0.623
1277.0   0.621
1277.5   0.620
1278.0   0.619
1278.5   0.619
1279.0   0.618
1279.5   0.618
1280.0   0.618
1280.5   0.619
1281.0   0.619
1281.5   0.619
1282.0   0.619
1282.5   0.619
1283.0   0.619
1283.5   0.619
1284.0   0.619
1284.5   0.620
1285.0   0.620
1285.5   0.621
1286.0   0.622
1286.5   0.624
1287.0   0.625
1287.5   0.627
1288.0   0.629
1288.5   0.631
1289.0   0.633
1289.5   0.634
1290.0   0.635
1290.5   0.636
1291.0   0.636
1291.5   0.636
1292.0   0.636
1292.5   0.636
1293.0   0.635
1293.5   0.635
1294.0   0.634
1294.5   0.634
1295.0   0.633
1295.5   0.632
1296.0   0.631
1296.5   0.630
1297.0   0.630
1297.5   0.628
1298.0   0.628
1298.5   0.627
1299.0   0.626
1299.5   0.626
1300.0   0.625
1300.5   0.625
1301.0   0.624
1301.5   0.623
1302.0   0.623
1302.5   0.622
1303.0   0.621
1303.5   0.622
1304.0   0.622
1304.5   0.623
1305.0   0.623
1305.5   0.623
1306.0   0.623
1306.5   0.623
1307.0   0.623
1307.5   0.623
1308.0   0.622
1308.5   0.621
1309.0   0.620
1309.5   0.619
1310.0   0.619
1310.5   0.618
1311.0   0.617
1311.5   0.617
1312.0   0.617
1312.5   0.617
1313.0   0.617
1313.5   0.618
1314.0   0.620
1314.5   0.621
1315.0   0.623
1315.5   0.624
1316.0   0.626
1316.5   0.627
1317.0   0.629
1317.5   0.630
1318.0   0.630
1318.5   0.631
1319.0   0.632
1319.5   0.632
1320.0   0.631
1320.5   0.630
1321.0   0.628
1321.5   0.625
1322.0   0.621
1322.5   0.616
1323.0   0.610
1323.5   0.603
1324.0   0.595
1324.5   0.586
1325.0   0.575
1325.5   0.565
1326.0   0.554
1326.5   0.542
1327.0   0.529
1327.5   0.516
1328.0   0.501
1328.5   0.485
1329.0   0.469
1329.5   0.453
1330.0   0.437
1330.5   0.419
1331.0   0.401
1331.5   0.383
1332.0   0.363
1332.5   0.345
1333.0   0.326
1333.5   0.308
1334.0   0.288
1334.5   0.267
1335.0   0.248
1335.5   0.228
1336.0   0.209
1336.5   0.192
1337.0   0.174
1337.5   0.156
1338.0   0.140
1338.5   0.125
1339.0   0.112
1339.5   0.100
1340.0   0.089
1340.5   0.078
1341.0   0.068
1341.5   0.060
1342.0   0.053
1342.5   0.047
1343.0   0.041
1343.5   0.036
1344.0   0.032
1344.5   0.028
1345.0   0.024
1345.5   0.022
1346.0   0.019
1346.5   0.017
1347.0   0.015
1347.5   0.013
1348.0   0.012
1348.5   0.011
1349.0   0.009
1349.5   0.009
1350.0   0.008
1350.5   0.007
1351.0   0.006
1351.5   0.006
1352.0   0.005
1352.5   0.005
1353.0   0.004
1353.5   0.004
1354.0   0.004
1354.5   0.003
1355.0   0.003
1355.5   0.003
1356.0   0.003
1356.5   0.002
1357.0   0.002
1357.5   0.002
1358.0   0.002
1358.5   0.002
1359.0   0.002
1359.5   0.002
1360.0   0.001
1360.5   0.001
1361.0   0.001
1361.5   0.001
1362.0   0.001
1362.5   0.001
1363.0   0.001
1363.5   0.001
1364.0   0.001
1364.5   0.001
1365.0   0.001
1365.5   0.001
1366.0   0.001
1366.5   0.001
1367.0   0.001
1367.5   0.001
1368.0   0.001
1368.5   0.001
1369.0   0.001
1369.5   0.000
2600.0   0.000
